**************INPUT DATA SUMMARY**************
%%%%%%%%%%%%%%%%%%%%%%%%%%%%%%%%%%%%%%%%%%%%%%%%%%%%%%%%%%%%%%%%%%%%%%%%%%%%%%

                                        John R. Barker
                DenSum-2023             University of Michigan
                                        Ann Arbor, MI 48109-2143
                Mar 2023                jrbarker@umich.edu
                                        (734) 763 6239

              http://clasp-research.engin.umich.edu/multiwell/

%%%%%%%%%%%%%%%%%%%%%%%%%%%%%%%%%%%%%%%%%%%%%%%%%%%%%%%%%%%%%%%%%%%%%%%%%%%%%%

        Suggested Literature Citations:

    a) J.R. Barker, T.L. Nguyen, J.F. Stanton, C. Aieta, M. Ceotto,
       F. Gabas, T.J.D. Kumar, C.G.L.Li, L.L.Lohr, A. Maranzana,
       N.F. Ortiz, J.M. Preses, J.M. Simmie, J.A. Sonk, and P.J. Stimac; 
       MultiWell-2023    Software Suite; University of Michigan, 
       Ann Arbor, Michigan, USA, Mar 2023; 
       http://clasp-research.engin.umich.edu/multiwell/.

    b) J.R. Barker, Int. J. Chem. Kinetics, 33, 232-45 (2001)

%%%%%%%%%%%%%%%%%%%%%%%%%%%%%%%%%%%%%%%%%%%%%%%%%%%%%%%%%%%%%%%%%%%%%%%%%%%%%%


....................................................
          2025/05/06   14:43:45.647   (Local Time)
          year/mm/dd   hr:mi:second
                 CPU :        0.016 s (  0.000 hr)
....................................................


Degrees of Freedom

  1  Vibrator: Fund=   864.90  Harm=   864.90  Anh(cm-1)=    0.00  g=  1
  2  Vibrator: Fund=   567.10  Harm=   567.10  Anh(cm-1)=    0.00  g=  1
  3  Vibrator: Fund=   127.30  Harm=   127.30  Anh(cm-1)=    0.00  g=  1
  4  Vibrator: Fund=  3057.90  Harm=  3057.90  Anh(cm-1)=    0.00  g=  2
  5  Vibrator: Fund=  3038.20  Harm=  3038.20  Anh(cm-1)=    0.00  g=  2
  6  Vibrator: Fund=  1622.50  Harm=  1622.50  Anh(cm-1)=    0.00  g=  2
  7  Vibrator: Fund=  1449.00  Harm=  1449.00  Anh(cm-1)=    0.00  g=  2
  8  Vibrator: Fund=  1405.40  Harm=  1405.40  Anh(cm-1)=    0.00  g=  2
  9  Vibrator: Fund=  1303.10  Harm=  1303.10  Anh(cm-1)=    0.00  g=  2
 10  Vibrator: Fund=  1202.10  Harm=  1202.10  Anh(cm-1)=    0.00  g=  2
 11  Vibrator: Fund=  1121.40  Harm=  1121.40  Anh(cm-1)=    0.00  g=  2
 12  Vibrator: Fund=   805.30  Harm=   805.30  Anh(cm-1)=    0.00  g=  2
 13  Vibrator: Fund=   762.30  Harm=   762.30  Anh(cm-1)=    0.00  g=  2
 14  Vibrator: Fund=   374.90  Harm=   374.90  Anh(cm-1)=    0.00  g=  2
 15  Vibrator: Fund=  3055.90  Harm=  3055.90  Anh(cm-1)=    0.00  g=  2
 16  Vibrator: Fund=  3040.00  Harm=  3040.00  Anh(cm-1)=    0.00  g=  2
 17  Vibrator: Fund=  1624.30  Harm=  1624.30  Anh(cm-1)=    0.00  g=  2
 18  Vibrator: Fund=  1447.50  Harm=  1447.50  Anh(cm-1)=    0.00  g=  2
 19  Vibrator: Fund=  1438.70  Harm=  1438.70  Anh(cm-1)=    0.00  g=  2
 20  Vibrator: Fund=  1389.80  Harm=  1389.80  Anh(cm-1)=    0.00  g=  2
 21  Vibrator: Fund=  1221.70  Harm=  1221.70  Anh(cm-1)=    0.00  g=  2
 22  Vibrator: Fund=  1142.40  Harm=  1142.40  Anh(cm-1)=    0.00  g=  2
 23  Vibrator: Fund=   983.60  Harm=   983.60  Anh(cm-1)=    0.00  g=  2
 24  Vibrator: Fund=   672.80  Harm=   672.80  Anh(cm-1)=    0.00  g=  2
 25  Vibrator: Fund=   484.10  Harm=   484.10  Anh(cm-1)=    0.00  g=  2
 26  Vibrator: Fund=   360.20  Harm=   360.20  Anh(cm-1)=    0.00  g=  2
 27  Vibrator: Fund=  3059.30  Harm=  3059.30  Anh(cm-1)=    0.00  g=  1
 28  Vibrator: Fund=  1596.20  Harm=  1596.20  Anh(cm-1)=    0.00  g=  1
 29  Vibrator: Fund=  1348.10  Harm=  1348.10  Anh(cm-1)=    0.00  g=  1
 30  Vibrator: Fund=  1199.90  Harm=  1199.90  Anh(cm-1)=    0.00  g=  1
 31  Vibrator: Fund=  1016.70  Harm=  1016.70  Anh(cm-1)=    0.00  g=  1
 32  Vibrator: Fund=   472.40  Harm=   472.40  Anh(cm-1)=    0.00  g=  1
 33  Vibrator: Fund=   942.40  Harm=   942.40  Anh(cm-1)=    0.00  g=  1
 34  Vibrator: Fund=   517.00  Harm=   517.00  Anh(cm-1)=    0.00  g=  1
 35  Vibrator: Fund=  3037.20  Harm=  3037.20  Anh(cm-1)=    0.00  g=  1
 36  Vibrator: Fund=  1531.20  Harm=  1531.20  Anh(cm-1)=    0.00  g=  1
 37  Vibrator: Fund=  1209.50  Harm=  1209.50  Anh(cm-1)=    0.00  g=  1
 38  Vibrator: Fund=   907.10  Harm=   907.10  Anh(cm-1)=    0.00  g=  1
 39  Vibrator: Fund=   622.40  Harm=   622.40  Anh(cm-1)=    0.00  g=  1
 40  Vibrator: Fund=   761.20  Harm=   761.20  Anh(cm-1)=    0.00  g=  1
 41  Vibrator: Fund=   161.40  Harm=   161.40  Anh(cm-1)=    0.00  g=  1
 42  Vibrator: Fund=  3040.90  Harm=  3040.90  Anh(cm-1)=    0.00  g=  1
 43  Vibrator: Fund=  1543.30  Harm=  1543.30  Anh(cm-1)=    0.00  g=  1
 44  Vibrator: Fund=  1389.60  Harm=  1389.60  Anh(cm-1)=    0.00  g=  1
 45  Vibrator: Fund=  1139.20  Harm=  1139.20  Anh(cm-1)=    0.00  g=  1
 46  Vibrator: Fund=   659.10  Harm=   659.10  Anh(cm-1)=    0.00  g=  1
 47  Vibrator: Fund=   546.30  Harm=   546.30  Anh(cm-1)=    0.00  g=  1
 48  Vibrator: Fund=   966.00  Harm=   966.00  Anh(cm-1)=    0.00  g=  1
 49  Vibrator: Fund=   925.20  Harm=   925.20  Anh(cm-1)=    0.00  g=  1
 50  Vibrator: Fund=   653.20  Harm=   653.20  Anh(cm-1)=    0.00  g=  1
 51  Vibrator: Fund=   222.90  Harm=   222.90  Anh(cm-1)=    0.00  g=  1
 52  Vibrator: Fund=  3054.70  Harm=  3054.70  Anh(cm-1)=    0.00  g=  1
 53  Vibrator: Fund=  1485.10  Harm=  1485.10  Anh(cm-1)=    0.00  g=  1
 54  Vibrator: Fund=  1342.50  Harm=  1342.50  Anh(cm-1)=    0.00  g=  1
 55  Vibrator: Fund=  1187.40  Harm=  1187.40  Anh(cm-1)=    0.00  g=  1
 56  Vibrator: Fund=  1118.50  Harm=  1118.50  Anh(cm-1)=    0.00  g=  1
 57  Vibrator: Fund=   464.90  Harm=   464.90  Anh(cm-1)=    0.00  g=  1
 58  Vibrator: Fund=   949.40  Harm=   949.40  Anh(cm-1)=    0.00  g=  2
 59  Vibrator: Fund=   842.90  Harm=   842.90  Anh(cm-1)=    0.00  g=  2
 60  Vibrator: Fund=   674.20  Harm=   674.20  Anh(cm-1)=    0.00  g=  2
 61  Vibrator: Fund=   448.90  Harm=   448.90  Anh(cm-1)=    0.00  g=  2
 62  Vibrator: Fund=   295.10  Harm=   295.10  Anh(cm-1)=    0.00  g=  2
 63  Vibrator: Fund=   959.10  Harm=   959.10  Anh(cm-1)=    0.00  g=  2
 64  Vibrator: Fund=   844.10  Harm=   844.10  Anh(cm-1)=    0.00  g=  2
 65  Vibrator: Fund=   778.70  Harm=   778.70  Anh(cm-1)=    0.00  g=  2
 66  Vibrator: Fund=   552.10  Harm=   552.10  Anh(cm-1)=    0.00  g=  2
 67  Vibrator: Fund=   297.20  Harm=   297.20  Anh(cm-1)=    0.00  g=  2
 68  Vibrator: Fund=    86.20  Harm=    86.20  Anh(cm-1)=    0.00  g=  2
 69  Quan.Rot  AmuAng^2 = 3030.86  Symm =  1.   dim = 1  B =  0.0056 cm-1
 70  Quan.Rot  AmuAng^2 = 1515.57  Symm = 12.   dim = 2  B =  0.0111 cm-1
**************INPUT DATA SUMMARY**************
 Coronene
Coronene vibs: scaled normal modes [Martin, Chem.P
       10.0        501   209705.0       1502       86.2
       No.    E-Emin     Density     Sum   [Emin =    0.0 cm-1; E at TOP of energy grains]
         1        0.0  2.16825E+02  2.16825E+03
         2       10.0  6.17967E+02  8.34792E+03
         3       20.0  8.70867E+02  1.70566E+04
         4       30.0  1.09944E+03  2.80510E+04
         5       40.0  1.29500E+03  4.10010E+04
         6       50.0  1.39067E+03  5.49077E+04
         7       60.0  1.52772E+03  7.01848E+04
         8       70.0  1.68620E+03  8.70468E+04
         9       80.0  1.77314E+03  1.04778E+05
        10       90.0  2.31629E+03  1.27941E+05
        11      100.0  3.24897E+03  1.60431E+05
        12      110.0  3.89622E+03  1.99393E+05
        13      120.0  4.39627E+03  2.43356E+05
        14      130.0  5.07488E+03  2.94105E+05
        15      140.0  5.75892E+03  3.51694E+05
        16      150.0  6.38700E+03  4.15564E+05
        17      160.0  7.26417E+03  4.88205E+05
        18      170.0  8.46366E+03  5.72842E+05
        19      180.0  1.01906E+04  6.74748E+05
        20      190.0  1.17394E+04  7.92142E+05
        21      200.0  1.32543E+04  9.24685E+05
        22      210.0  1.41574E+04  1.06626E+06
        23      220.0  1.56246E+04  1.22250E+06
        24      230.0  1.77283E+04  1.39979E+06
        25      240.0  1.94288E+04  1.59408E+06
        26      250.0  2.15645E+04  1.80972E+06
        27      260.0  2.47961E+04  2.05768E+06
        28      270.0  2.84052E+04  2.34173E+06
        29      280.0  3.11869E+04  2.65360E+06
        30      290.0  3.42136E+04  2.99574E+06
        31      300.0  3.76329E+04  3.37207E+06
        32      310.0  4.25598E+04  3.79767E+06
        33      320.0  4.78139E+04  4.27580E+06
        34      330.0  5.30216E+04  4.80602E+06
        35      340.0  5.85167E+04  5.39119E+06
        36      350.0  6.52712E+04  6.04390E+06
        37      360.0  7.20704E+04  6.76460E+06
        38      370.0  7.91258E+04  7.55586E+06
        39      380.0  8.57744E+04  8.41361E+06
        40      390.0  9.49589E+04  9.36320E+06
        41      400.0  1.06815E+05  1.04313E+07
        42      410.0  1.17210E+05  1.16034E+07
        43      420.0  1.28097E+05  1.28844E+07
        44      430.0  1.40492E+05  1.42893E+07
        45      440.0  1.53619E+05  1.58255E+07
        46      450.0  1.67458E+05  1.75001E+07
        47      460.0  1.84303E+05  1.93431E+07
        48      470.0  2.02586E+05  2.13690E+07
        49      480.0  2.25143E+05  2.36204E+07
        50      490.0  2.48541E+05  2.61058E+07
        51      500.0  2.71044E+05  2.88163E+07
        52      510.0  2.92035E+05  3.17366E+07
        53      520.0  3.17989E+05  3.49165E+07
        54      530.0  3.46307E+05  3.83796E+07
        55      540.0  3.76385E+05  4.21434E+07
        56      550.0  4.10617E+05  4.62496E+07
        57      560.0  4.51198E+05  5.07616E+07
        58      570.0  4.95155E+05  5.57131E+07
        59      580.0  5.36901E+05  6.10821E+07
        60      590.0  5.82927E+05  6.69114E+07
        61      600.0  6.29576E+05  7.32072E+07
        62      610.0  6.83626E+05  8.00434E+07
        63      620.0  7.44638E+05  8.74898E+07
        64      630.0  8.10003E+05  9.55898E+07
        65      640.0  8.77890E+05  1.04369E+08
        66      650.0  9.57952E+05  1.13948E+08
        67      660.0  1.03824E+06  1.24331E+08
        68      670.0  1.12032E+06  1.35534E+08
        69      680.0  1.21089E+06  1.47643E+08
        70      690.0  1.31158E+06  1.60758E+08
        71      700.0  1.42169E+06  1.74975E+08
        72      710.0  1.53870E+06  1.90362E+08
        73      720.0  1.66488E+06  2.07011E+08
        74      730.0  1.79783E+06  2.24989E+08
        75      740.0  1.94138E+06  2.44403E+08
        76      750.0  2.09151E+06  2.65318E+08
        77      760.0  2.25756E+06  2.87894E+08
        78      770.0  2.43843E+06  3.12278E+08
        79      780.0  2.63870E+06  3.38665E+08
        80      790.0  2.85172E+06  3.67183E+08
        81      800.0  3.07054E+06  3.97888E+08
        82      810.0  3.30030E+06  4.30891E+08
        83      820.0  3.55826E+06  4.66473E+08
        84      830.0  3.82432E+06  5.04717E+08
        85      840.0  4.11453E+06  5.45862E+08
        86      850.0  4.43746E+06  5.90237E+08
        87      860.0  4.78359E+06  6.38072E+08
        88      870.0  5.14952E+06  6.89568E+08
        89      880.0  5.53100E+06  7.44878E+08
        90      890.0  5.93568E+06  8.04234E+08
        91      900.0  6.36584E+06  8.67893E+08
        92      910.0  6.83808E+06  9.36274E+08
        93      920.0  7.34532E+06  1.00973E+09
        94      930.0  7.89595E+06  1.08869E+09
        95      940.0  8.48662E+06  1.17355E+09
        96      950.0  9.12471E+06  1.26480E+09
        97      960.0  9.78018E+06  1.36260E+09
        98      970.0  1.04656E+07  1.46726E+09
        99      980.0  1.12139E+07  1.57940E+09
       100      990.0  1.20234E+07  1.69963E+09
       101     1000.0  1.28780E+07  1.82841E+09
       102     1010.0  1.38052E+07  1.96646E+09
       103     1020.0  1.48054E+07  2.11452E+09
       104     1030.0  1.58493E+07  2.27301E+09
       105     1040.0  1.69712E+07  2.44272E+09
       106     1050.0  1.81425E+07  2.62415E+09
       107     1060.0  1.93881E+07  2.81803E+09
       108     1070.0  2.07543E+07  3.02557E+09
       109     1080.0  2.22133E+07  3.24770E+09
       110     1090.0  2.37500E+07  3.48520E+09
       111     1100.0  2.53816E+07  3.73902E+09
       112     1110.0  2.71307E+07  4.01033E+09
       113     1120.0  2.89877E+07  4.30020E+09
       114     1130.0  3.09475E+07  4.60968E+09
       115     1140.0  3.30427E+07  4.94011E+09
       116     1150.0  3.53054E+07  5.29316E+09
       117     1160.0  3.77168E+07  5.67033E+09
       118     1170.0  4.02532E+07  6.07286E+09
       119     1180.0  4.29380E+07  6.50224E+09
       120     1190.0  4.57735E+07  6.95998E+09
       121     1200.0  4.88036E+07  7.44801E+09
       122     1210.0  5.20535E+07  7.96855E+09
       123     1220.0  5.54907E+07  8.52345E+09
       124     1230.0  5.91645E+07  9.11510E+09
       125     1240.0  6.31256E+07  9.74636E+09
       126     1250.0  6.72850E+07  1.04192E+10
       127     1260.0  7.16361E+07  1.11356E+10
       128     1270.0  7.62582E+07  1.18981E+10
       129     1280.0  8.11832E+07  1.27100E+10
       130     1290.0  8.64452E+07  1.35744E+10
       131     1300.0  9.20419E+07  1.44949E+10
       132     1310.0  9.79891E+07  1.54747E+10
       133     1320.0  1.04330E+08  1.65180E+10
       134     1330.0  1.11014E+08  1.76282E+10
       135     1340.0  1.18080E+08  1.88090E+10
       136     1350.0  1.25510E+08  2.00641E+10
       137     1360.0  1.33396E+08  2.13980E+10
       138     1370.0  1.41867E+08  2.28167E+10
       139     1380.0  1.50862E+08  2.43253E+10
       140     1390.0  1.60345E+08  2.59288E+10
       141     1400.0  1.70409E+08  2.76329E+10
       142     1410.0  1.81130E+08  2.94442E+10
       143     1420.0  1.92345E+08  3.13676E+10
       144     1430.0  2.04258E+08  3.34102E+10
       145     1440.0  2.16894E+08  3.55791E+10
       146     1450.0  2.30309E+08  3.78822E+10
       147     1460.0  2.44573E+08  4.03280E+10
       148     1470.0  2.59648E+08  4.29244E+10
       149     1480.0  2.75510E+08  4.56795E+10
       150     1490.0  2.92330E+08  4.86028E+10
       151     1500.0  3.10158E+08  5.17044E+10
       152     1510.0  3.28970E+08  5.49941E+10
       153     1520.0  3.48919E+08  5.84833E+10
       154     1530.0  3.70047E+08  6.21838E+10
       155     1540.0  3.92522E+08  6.61090E+10
       156     1550.0  4.16134E+08  7.02703E+10
       157     1560.0  4.41012E+08  7.46805E+10
       158     1570.0  4.67354E+08  7.93540E+10
       159     1580.0  4.95231E+08  8.43063E+10
       160     1590.0  5.24716E+08  8.95535E+10
       161     1600.0  5.55994E+08  9.51134E+10
       162     1610.0  5.89039E+08  1.01004E+11
       163     1620.0  6.23949E+08  1.07243E+11
       164     1630.0  6.60818E+08  1.13851E+11
       165     1640.0  6.99561E+08  1.20847E+11
       166     1650.0  7.40368E+08  1.28251E+11
       167     1660.0  7.83706E+08  1.36088E+11
       168     1670.0  8.29529E+08  1.44383E+11
       169     1680.0  8.77941E+08  1.53163E+11
       170     1690.0  9.29106E+08  1.62454E+11
       171     1700.0  9.83090E+08  1.72284E+11
       172     1710.0  1.04008E+09  1.82685E+11
       173     1720.0  1.09990E+09  1.93684E+11
       174     1730.0  1.16306E+09  2.05315E+11
       175     1740.0  1.22981E+09  2.17613E+11
       176     1750.0  1.30038E+09  2.30617E+11
       177     1760.0  1.37487E+09  2.44365E+11
       178     1770.0  1.45351E+09  2.58901E+11
       179     1780.0  1.53619E+09  2.74262E+11
       180     1790.0  1.62353E+09  2.90498E+11
       181     1800.0  1.71556E+09  3.07653E+11
       182     1810.0  1.81225E+09  3.25776E+11
       183     1820.0  1.91447E+09  3.44921E+11
       184     1830.0  2.02245E+09  3.65145E+11
       185     1840.0  2.13624E+09  3.86507E+11
       186     1850.0  2.25593E+09  4.09067E+11
       187     1860.0  2.38211E+09  4.32888E+11
       188     1870.0  2.51489E+09  4.58037E+11
       189     1880.0  2.65498E+09  4.84587E+11
       190     1890.0  2.80251E+09  5.12612E+11
       191     1900.0  2.95790E+09  5.42191E+11
       192     1910.0  3.12185E+09  5.73409E+11
       193     1920.0  3.29449E+09  6.06354E+11
       194     1930.0  3.47609E+09  6.41115E+11
       195     1940.0  3.66687E+09  6.77784E+11
       196     1950.0  3.86770E+09  7.16461E+11
       197     1960.0  4.07967E+09  7.57257E+11
       198     1970.0  4.30276E+09  8.00285E+11
       199     1980.0  4.53747E+09  8.45660E+11
       200     1990.0  4.78476E+09  8.93507E+11
       201     2000.0  5.04501E+09  9.43957E+11
       202     2010.0  5.31834E+09  9.97141E+11
       203     2020.0  5.60573E+09  1.05320E+12
       204     2030.0  5.90785E+09  1.11228E+12
       205     2040.0  6.22602E+09  1.17454E+12
       206     2050.0  6.56135E+09  1.24015E+12
       207     2060.0  6.91384E+09  1.30929E+12
       208     2070.0  7.28440E+09  1.38213E+12
       209     2080.0  7.67405E+09  1.45887E+12
       210     2090.0  8.08365E+09  1.53971E+12
       211     2100.0  8.51370E+09  1.62485E+12
       212     2110.0  8.96560E+09  1.71450E+12
       213     2120.0  9.44096E+09  1.80891E+12
       214     2130.0  9.94145E+09  1.90833E+12
       215     2140.0  1.04673E+10  2.01300E+12
       216     2150.0  1.10194E+10  2.12319E+12
       217     2160.0  1.15998E+10  2.23919E+12
       218     2170.0  1.22092E+10  2.36128E+12
       219     2180.0  1.28494E+10  2.48978E+12
       220     2190.0  1.35220E+10  2.62500E+12
       221     2200.0  1.42281E+10  2.76728E+12
       222     2210.0  1.49708E+10  2.91699E+12
       223     2220.0  1.57511E+10  3.07450E+12
       224     2230.0  1.65695E+10  3.24019E+12
       225     2240.0  1.74284E+10  3.41448E+12
       226     2250.0  1.83310E+10  3.59779E+12
       227     2260.0  1.92784E+10  3.79057E+12
       228     2270.0  2.02732E+10  3.99330E+12
       229     2280.0  2.13175E+10  4.20648E+12
       230     2290.0  2.24137E+10  4.43061E+12
       231     2300.0  2.35647E+10  4.66626E+12
       232     2310.0  2.47714E+10  4.91397E+12
       233     2320.0  2.60374E+10  5.17435E+12
       234     2330.0  2.73658E+10  5.44801E+12
       235     2340.0  2.87605E+10  5.73561E+12
       236     2350.0  3.02243E+10  6.03785E+12
       237     2360.0  3.17600E+10  6.35545E+12
       238     2370.0  3.33701E+10  6.68916E+12
       239     2380.0  3.50598E+10  7.03975E+12
       240     2390.0  3.68309E+10  7.40806E+12
       241     2400.0  3.86867E+10  7.79493E+12
       242     2410.0  4.06338E+10  8.20127E+12
       243     2420.0  4.26762E+10  8.62803E+12
       244     2430.0  4.48185E+10  9.07621E+12
       245     2440.0  4.70650E+10  9.54686E+12
       246     2450.0  4.94191E+10  1.00411E+13
       247     2460.0  5.18865E+10  1.05599E+13
       248     2470.0  5.44728E+10  1.11046E+13
       249     2480.0  5.71822E+10  1.16765E+13
       250     2490.0  6.00216E+10  1.22767E+13
       251     2500.0  6.29984E+10  1.29067E+13
       252     2510.0  6.61192E+10  1.35679E+13
       253     2520.0  6.93893E+10  1.42618E+13
       254     2530.0  7.28142E+10  1.49899E+13
       255     2540.0  7.64012E+10  1.57539E+13
       256     2550.0  8.01607E+10  1.65555E+13
       257     2560.0  8.40970E+10  1.73965E+13
       258     2570.0  8.82201E+10  1.82787E+13
       259     2580.0  9.25397E+10  1.92041E+13
       260     2590.0  9.70643E+10  2.01747E+13
       261     2600.0  1.01802E+11  2.11928E+13
       262     2610.0  1.06763E+11  2.22604E+13
       263     2620.0  1.11955E+11  2.33799E+13
       264     2630.0  1.17393E+11  2.45539E+13
       265     2640.0  1.23088E+11  2.57847E+13
       266     2650.0  1.29048E+11  2.70752E+13
       267     2660.0  1.35288E+11  2.84281E+13
       268     2670.0  1.41819E+11  2.98463E+13
       269     2680.0  1.48656E+11  3.13329E+13
       270     2690.0  1.55809E+11  3.28910E+13
       271     2700.0  1.63294E+11  3.45239E+13
       272     2710.0  1.71127E+11  3.62352E+13
       273     2720.0  1.79326E+11  3.80284E+13
       274     2730.0  1.87906E+11  3.99075E+13
       275     2740.0  1.96882E+11  4.18763E+13
